File: Blackrock Challenge/data/XRD.csv
Date,Price
2018-01-02,665.071
2018-01-09,678.069
2018-01-17,681.1
2018-01-24,711.617
2018-01-31,706.263
2018-02-07,674.63
2018-02-14,661.13
2018-02-22,652.096
2018-03-01,633.512
2018-03-08,633.829
2018-03-15,637.549
2018-03-22,610.274
2018-03-29,608.516
2018-04-06,586.548
2018-04-13,595.906
2018-04-20,598.808
2018-04-27,598.123
2018-05-04,590.353
2018-05-11,596.327
2018-05-18,597.212
2018-05-25,592.161
2018-06-04,597.511
2018-06-11,625.883
2018-06-18,614.053
2018-06-25,592.114
2018-07-02,600.291
2018-07-10,629.321
2018-07-17,611.135
2018-07-24,639.712
2018-07-31,614.755
2018-08-07,615.171
2018-08-14,591.987
2018-08-21,587.434
2018-08-28,599.228
2018-09-05,625.344
2018-09-12,637.144
2018-09-19,638.813
2018-09-26,637.368
2018-10-03,648.495
2018-10-10,602.145
2018-10-17,602.59
2018-10-24,561.655
2018-10-31,581.153
2018-11-07,631.485
2018-11-14,613.512
2018-11-21,616.958
2018-11-29,652.473
2018-12-07,618.688
2018-12-14,619.369
2018-12-21,569.76
2018-12-31,599.651
2019-01-08,583.111
2019-01-15,617.169
2019-01-23,638.604
2019-01-30,668.265
2019-02-06,682.264
2019-02-13,691.428
2019-02-21,711.592
2019-02-28,718.924
2019-03-07,703.77
2019-03-14,720.089
2019-03-21,758.414
2019-03-28,733.733
2019-04-04,751.049
2019-04-11,779.637
2019-04-18,760.109
2019-04-26,759.747
2019-05-03,801.497
2019-05-10,749.262
2019-05-17,764.202
2019-05-24,751.765
2019-06-03,754.882
2019-06-10,848.188
2019-06-17,829.965
2019-06-24,857.131
2019-07-01,879.417
2019-07-09,883.238
2019-07-16,859.558
2019-07-23,849.438
2019-07-30,798.091
2019-08-06,738.26
2019-08-13,729.379
2019-08-20,697.787
2019-08-27,679.449
2019-09-04,689.225
2019-09-11,755.794
2019-09-18,731.24
2019-09-25,726.289
2019-10-02,696.953
2019-10-09,701.7
2019-10-16,691.934
2019-10-23,719.967
2019-10-30,734.528
2019-11-06,732.023
2019-11-13,748.001
2019-11-20,749.859
2019-11-27,746.964
2019-12-05,764.296
2019-12-12,807.347
2019-12-19,810.788
2019-12-27,832.681
2020-01-06,835.423
2020-01-13,845.548
2020-01-21,871.636
2020-01-28,837.056
2020-02-04,802.901
2020-02-11,820.619
2020-02-19,794.922
2020-02-26,721.924
2020-03-04,803.041
2020-03-11,697.947
2020-03-18,730.651
2020-03-25,665.668
2020-04-01,692.592
2020-04-08,765.92
2020-04-16,717.553
2020-04-23,731.698
2020-04-30,758.607
2020-05-07,766.933
2020-05-14,713.061
2020-05-21,760.494
2020-05-29,816.548
2020-06-05,881.143
2020-06-12,795.989
2020-06-19,837.141
2020-06-26,809.976
2020-07-06,854.509
2020-07-13,846.9
2020-07-20,900.437
2020-07-27,913.373
2020-08-03,944.647
2020-08-10,964.316
2020-08-17,994.317
2020-08-24,986.758
2020-08-31,1014.65
2020-09-08,975.828
2020-09-15,1011.35
2020-09-22,1004.8
2020-09-29,1007.08
2020-10-06,1038.41
2020-10-13,1055.09
2020-10-20,1058.62
2020-10-27,1087.42
2020-11-03,1096.21
2020-11-10,1161.75
2020-11-17,1233.05
2020-11-24,1150.48
2020-12-02,1165.87
2020-12-09,1169.88
2020-12-16,1152.82
2020-12-23,1162.39
2020-12-31,1176.87
2021-01-08,1268.52
2021-01-15,1255.29
2021-01-25,1271.89
2021-02-01,1218.46
2021-02-08,1245.95
2021-02-16,1206.69
2021-02-23,1154.16
2021-03-02,1166.96
2021-03-09,1095.24
2021-03-16,1111.82
2021-03-23,1146.73
2021-03-30,1192.89
2021-04-07,1244.59
2021-04-14,1246.99
2021-04-21,1344.68
2021-04-28,1369.65
2021-05-05,1335.68
2021-05-12,1259.66
2021-05-19,1266.13
2021-05-26,1301.34
2021-06-03,1282.02
2021-06-10,1346.22
2021-06-17,1384.62
2021-06-24,1401.55
2021-07-01,1391.54
2021-07-09,1485.43
2021-07-16,1489.3
2021-07-23,1492.66
2021-07-30,1512.09
2021-08-06,1537.91
2021-08-13,1566.47
2021-08-20,1564.04
2021-08-27,1582.91
2021-09-03,1586.3
2021-09-13,1588.6
2021-09-20,1553.56
2021-09-27,1504.86
2021-10-04,1407.47
2021-10-11,1397.99
2021-10-18,1452.46
2021-10-25,1505.26
2021-11-01,1454.27
2021-11-08,1550.29
2021-11-15,1543.19
2021-11-22,1531.93
2021-11-30,1545.89
2021-12-07,1591.87
2021-12-14,1593.34
2021-12-21,1599.08
2021-12-29,1707.07
2022-01-05,1600.05
2022-01-12,1607.71
2022-01-20,1495.31
2022-01-27,1446.05
2022-02-03,1523.27
2022-02-10,1568.14
2022-02-17,1461.47
2022-02-25,1467.54
2022-03-04,1404.08
2022-03-11,1342.76
2022-03-18,1429.64
2022-03-25,1406.6
2022-04-01,1420.51
2022-04-08,1412.23
2022-04-18,1333.79
2022-04-25,1315.08
2022-05-02,1314.67
2022-05-09,1220.78
2022-05-16,1281.98
2022-05-23,1261.92
2022-05-31,1326.77
2022-06-07,1330.43
2022-06-14,1187.97
2022-06-22,1137.7
2022-06-29,1172.45
2022-07-07,1230.34
2022-07-14,1183.2
2022-07-21,1288.68
2022-07-28,1314.62
2022-08-04,1375.43
2022-08-11,1379.43
2022-08-18,1371.65
2022-08-25,1344.65
2022-09-01,1223.85
2022-09-09,1320.97
2022-09-16,1224.74
2022-09-23,1148.97
2022-09-30,1100.54
2022-10-07,1197.32
2022-10-14,1157.58
2022-10-21,1188.07
2022-10-28,1299.66
2022-11-04,1317.75
2022-11-11,1495.92
2022-11-18,1443.59
2022-11-28,1467.47
2022-12-05,1488.99
2022-12-12,1494.52
2022-12-19,1432.54
2022-12-27,1478.67
2022-12-30,1461.57